Time(s)	10sccm	1000sccm	Pressure (bar)	Temp (°C)
0.000000	0.011390	1.532919	0.216059	-37.445907	
0.703593	0.011062	1.204640	0.202402	-37.444874	
0.987962	0.012046	1.204640	0.190847	-37.431046	
1.272433	0.011718	1.303124	0.190059	-37.450963	
1.556301	0.008435	1.106157	0.179554	-37.456649	
1.841900	0.007451	1.270296	0.178241	-37.444596	
2.126051	0.010077	1.171812	0.172463	-37.436045	
2.411361	0.011062	1.007673	0.164585	-37.434808	
2.695000	0.012046	1.106157	0.152767	-37.451267	
2.979386	0.011390	1.073329	0.152504	-37.451998	
3.263434	0.009420	1.303124	0.145938	-37.451045	
3.547626	0.009748	1.335951	0.140423	-37.448790	
4.047583	0.010405	1.467263	0.127292	-37.446860	
4.547687	0.009092	1.171812	0.123615	-37.470906	
5.047658	0.011718	0.942017	0.114949	-37.451178	
5.547743	0.011062	1.237468	0.102868	-37.459874	
6.047663	0.010405	1.270296	0.092101	-37.442033	
6.547917	0.009092	1.270296	0.090262	-37.458315	
7.048020	0.011718	1.106157	0.077919	-37.437167	
7.547889	0.008764	1.138984	0.077656	-37.454045	
8.047946	0.010733	1.434435	0.064525	-37.472117	
8.547988	0.008764	1.040501	0.065838	-37.450964	
9.047904	0.008107	0.942017	0.051919	-37.468372	
9.551752	0.013688	1.237468	0.052445	-37.461321	
10.051841	0.010405	1.171812	0.040101	-37.463244	
10.551782	0.007779	1.106157	0.039839	-37.456624	
11.051948	0.011062	1.040501	0.039313	-37.460556	
11.551875	0.011062	1.204640	0.031172	-37.466138	
12.051959	0.011390	1.204640	0.031697	-37.468801	
12.551970	0.011062	1.171812	0.032223	-37.456352	
13.052091	0.012375	1.401607	0.032748	-37.471266	
13.551992	0.008764	1.204640	0.032748	-37.467969	
14.052182	0.006794	1.237468	0.031697	-37.474549	
14.552105	0.010077	1.106157	0.033536	-37.453098	
15.052244	0.011718	1.171812	0.032748	-37.466521	
15.552123	0.011062	1.368779	0.031960	-37.469379	
16.052263	0.009420	1.007673	0.032748	-37.453911	
16.552200	0.011062	1.106157	0.031960	-37.472263	
17.052381	0.014016	1.401607	0.031960	-37.459277	
17.552268	0.012046	1.303124	0.032485	-37.475903	
18.052471	0.008764	1.270296	0.031435	-37.480761	
18.552390	0.010733	1.171812	0.032748	-37.472664	
19.052457	0.010405	1.138984	0.032485	-37.483641	
19.552416	13.041429	266.125250	0.035374	-37.474387	
20.052528	13.045369	817.140519	0.041940	-37.477821	
20.552560	13.042414	806.208839	0.052182	-37.468078	
21.052658	13.047995	774.365811	0.071353	-37.478446	
21.552671	13.043071	746.363647	0.098404	-37.490538	
22.052771	11.792653	719.707429	0.125979	-37.489078	
22.552629	11.261168	693.182526	0.158282	-37.495857	
23.053213	13.043071	666.985905	0.177716	-37.486693	
23.553407	13.042414	638.622649	0.195574	-37.481913	
24.053260	13.046682	615.675989	0.227351	-37.478574	
24.553445	13.041758	588.921302	0.246523	-37.506478	
25.053629	13.044384	566.105957	0.264381	-37.495205	
25.553479	13.042414	541.550739	0.289330	-37.501990	
26.053667	13.042086	524.710062	0.301936	-37.486690	
26.553580	13.042414	494.081697	0.320583	-37.499509	
27.053673	13.046354	463.190712	0.340279	-37.494746	
27.555835	13.043727	440.342546	0.358663	-37.507801	
28.055668	13.043399	418.085280	0.370481	-37.511529	
28.555824	13.040773	397.502234	0.385713	-37.509396	
29.055804	13.044056	378.462096	0.399107	-37.502666	
29.555971	13.043071	357.780567	0.415652	-37.504814	
30.055885	13.045041	341.432311	0.428520	-37.513126	
30.556035	13.041429	323.541147	0.440338	-37.516160	
31.055982	13.043727	306.175228	0.452682	-37.517800	
31.556039	13.040773	289.892627	0.458722	-37.500270	
32.056047	13.042743	274.168098	0.465288	-37.517899	
32.556189	13.043399	259.165782	0.477894	-37.521236	
33.056077	13.044056	245.246784	0.491025	-37.508667	
33.556173	13.041101	231.163646	0.492338	-37.513944	
34.058820	13.043727	219.411283	0.503105	-37.520239	
34.560795	13.043727	206.214496	0.510459	-37.534652	
35.060949	13.042086	194.757584	0.527792	-37.524718	
35.560819	13.043727	183.202187	0.528054	-37.546418	
36.060929	13.041429	172.434659	0.527792	-37.538337	
36.560908	13.043727	162.848932	0.541186	-37.532808	
37.061058	13.042414	153.197549	0.540660	-37.537752	
37.560922	13.043071	143.808788	0.551953	-37.539766	
38.060948	13.040445	135.930108	0.553266	-37.528754	
38.561082	13.043071	126.574175	0.554579	-37.535833	
39.060958	13.042743	120.107091	0.566923	-37.549254	
39.561136	13.043399	114.066769	0.567448	-37.533568	
40.061058	13.043399	105.794154	0.572438	-37.540433	
40.561027	13.045041	98.965963	0.570337	-37.547090	
41.063734	13.044056	93.024125	0.579003	-37.542468	
41.567218	13.043071	87.016630	0.579791	-37.527842	
42.067198	13.044384	81.895487	0.580316	-37.557133	
42.567051	13.044712	75.855164	0.579003	-37.536000	
43.067233	13.044384	71.751684	0.587670	-37.545878	
43.567137	13.043727	66.794679	0.590296	-37.552682	
44.067322	13.044056	63.446239	0.591347	-37.554425	
44.567290	13.043727	59.309931	0.591084	-37.558384	
45.067330	13.043399	54.517066	0.590821	-37.559966	
45.567368	13.041429	51.726699	0.593973	-37.569720	
46.067424	13.047339	47.787358	0.598175	-37.567951	
46.568050	13.043071	45.522236	0.602377	-37.572117	
47.067270	13.043399	42.009657	0.603690	-37.548416	
47.567406	13.042743	40.762199	0.602902	-37.561713	
48.067386	13.046025	36.166300	0.603427	-37.568333	
48.567341	13.043727	34.787530	0.603952	-37.578194	
49.067423	13.045697	32.325442	0.603952	-37.577973	
49.567410	13.043727	30.191632	0.603952	-37.573551	
50.068010	13.042414	28.189133	0.603427	-37.581948	
50.570836	13.045697	27.204298	0.609468	-37.588037	
51.070818	13.040445	24.807865	0.609993	-37.588032	
51.571094	13.045697	22.903849	0.609730	-37.578086	
52.071053	13.043727	20.802867	0.612094	-37.583369	
52.571049	13.043399	19.883687	0.615508	-37.594759	
53.071187	13.043399	19.095819	0.614983	-37.568659	
53.571105	13.044712	17.848361	0.613407	-37.586020	
54.071222	13.044056	16.666558	0.614983	-37.604735	
54.571161	13.042743	14.598403	0.615770	-37.587902	
55.075356	13.045369	15.057993	0.615770	-37.591406	
55.575459	13.044384	13.219634	0.615245	-37.589921	
56.075450	13.043727	11.906520	0.615770	-37.595411	
56.575558	13.041101	11.118651	0.615245	-37.590000	
57.075487	12.575928	10.494922	0.615508	-37.606111	
57.575617	11.725027	11.085823	0.616033	-37.610399	
58.075512	10.911879	8.984841	0.616821	-37.604461	
58.575663	10.286506	8.262628	0.615245	-37.594893	
59.075885	9.576767	8.492423	0.616296	-37.613719	
59.575717	8.966496	8.032833	0.615508	-37.614896	
60.075699	8.392665	6.818203	0.615245	-37.619611	
60.575793	7.873000	6.095990	0.616558	-37.604975	
61.075770	7.387476	6.719719	0.615770	-37.609317	
61.575887	6.799857	5.964679	0.617346	-37.608142	
62.080270	6.419383	4.421770	0.616033	-37.630175	
62.580224	6.109160	3.962180	0.615770	-37.613260	
63.080366	5.631186	2.517754	0.615508	-37.602016	
63.580256	5.286822	1.270296	0.615770	-37.607372	
64.080501	4.943443	1.270296	0.615770	-37.622756	
64.580367	4.604003	1.138984	0.615770	-37.636395	
65.080560	4.263907	1.237468	0.615770	-37.621662	
65.580487	4.001941	1.237468	0.614457	-37.630226	
66.080582	3.758030	1.040501	0.617084	-37.633717	
66.580515	3.497049	1.237468	0.615770	-37.630464	
67.080467	3.236396	1.565746	0.615770	-37.628047	
67.580601	3.045995	1.335951	0.615770	-37.627950	
68.080510	2.839180	1.106157	0.615245	-37.624848	
68.580640	2.672414	1.204640	0.614983	-37.633450	
69.080613	2.514841	1.237468	0.621286	-37.629618	
69.583345	2.350702	1.303124	0.615770	-37.637435	
70.083372	2.196739	1.237468	0.617609	-37.636996	
70.583393	2.081185	1.335951	0.616033	-37.646376	
71.083248	1.907854	1.237468	0.615508	-37.643294	
71.583488	1.833007	1.106157	0.615770	-37.644408	
72.083609	1.729927	1.401607	0.616033	-37.637456	
72.583516	1.598616	1.007673	0.614720	-37.642140	
73.083646	1.503744	0.909189	0.615245	-37.655448	
73.583613	1.395412	1.237468	0.615770	-37.646326	
74.083506	1.310716	1.171812	0.617346	-37.639805	
74.583691	1.251626	1.204640	0.616558	-37.648896	
75.083632	1.149859	1.138984	0.615508	-37.650837	
75.583695	1.056628	0.974845	0.615245	-37.653983	
76.083667	0.992614	1.138984	0.615508	-37.655433	
76.583777	0.921049	1.270296	0.615245	-37.660709	
77.083774	0.879358	1.303124	0.615770	-37.655389	
77.583870	0.846530	1.171812	0.615770	-37.653457	
78.084060	0.820596	1.795541	0.615508	-37.659111	
78.583934	0.750016	1.171812	0.623912	-37.662914	
79.083837	0.667947	1.106157	0.615245	-37.663769	
79.584033	0.554691	1.237468	0.615508	-37.673569	
80.084151	0.472621	1.171812	0.615770	-37.674771	
80.584046	0.439137	1.270296	0.616821	-37.672937	
81.084682	0.417142	1.237468	0.616033	-37.668997	
81.584750	0.433228	1.073329	0.614720	-37.668801	
82.084702	0.386612	1.106157	0.616296	-37.682515	
82.584852	0.368229	1.401607	0.615770	-37.671134	
83.084949	0.331461	1.335951	0.616033	-37.675547	
83.584968	0.350830	1.138984	0.617346	-37.684968	
84.084822	0.385627	1.270296	0.615508	-37.666506	
84.584977	0.418783	1.368779	0.615245	-37.664999	
85.085115	0.408279	0.942017	0.616296	-37.698201	
85.585039	0.385627	1.138984	0.614720	-37.694154	
86.085245	0.398758	1.106157	0.615245	-37.698582	
86.585142	0.448657	1.270296	0.620760	-37.679741	
87.085292	0.442748	1.237468	0.614983	-37.683606	
87.585215	0.458833	1.303124	0.624174	-37.674131	
88.085171	0.483454	1.303124	0.614983	-37.694702	
88.585216	0.492318	1.237468	0.616296	-37.687433	
89.085225	0.474919	1.335951	0.623124	-37.675876	
89.585371	0.320956	1.270296	0.614983	-37.707329	
90.085499	0.195554	1.073329	0.621548	-37.689627	
90.585593	0.196539	1.171812	0.615508	-37.692604	
91.085558	0.262195	1.270296	0.615245	-37.675626	
91.585450	0.257927	1.106157	0.615770	-37.715473	
92.085721	0.201135	1.106157	0.622599	-37.695774	
92.585501	0.172246	1.106157	0.616296	-37.691450	
93.085785	0.157474	1.992509	0.625750	-37.711358	
93.585682	0.151565	1.073329	0.618659	-37.703886	
94.086229	0.150252	1.106157	0.617871	-37.710658	
94.588877	0.112828	1.368779	0.615770	-37.705404	
95.088986	0.079343	1.270296	0.614720	-37.684370	
95.588978	0.062930	1.204640	0.619447	-37.716309	
96.089076	0.127600	1.138984	0.618397	-37.706749	
96.589012	0.152878	1.040501	0.620235	-37.694420	
97.089140	0.136792	1.106157	0.614983	-37.721184	
97.589689	0.094116	1.303124	0.618922	-37.692663	
98.089654	0.099697	1.138984	0.621548	-37.711652	
98.591878	0.119065	1.237468	0.615245	-37.697398	
99.089727	0.132853	1.335951	0.615245	-37.695120	
99.589942	0.104621	1.237468	0.615770	-37.731277	
100.090071	0.099697	1.303124	0.617346	-37.722237	
100.590012	0.108232	1.434435	0.615770	-37.707667	
101.090127	0.121691	1.040501	0.618659	-37.732410	
101.590033	0.135151	1.532919	0.615770	-37.728141	
102.090119	0.123333	1.270296	0.614983	-37.707252	
102.590119	0.098384	1.598574	0.615508	-37.722748	
103.090377	0.097399	1.368779	0.621548	-37.725034	
103.596042	0.086566	1.171812	0.615508	-37.715304	
104.095890	0.083939	1.171812	0.614983	-37.730697	
104.595969	0.082626	1.106157	0.614983	-37.734012	
105.095906	0.076389	1.106157	0.624700	-37.717197	
105.595882	0.075076	0.909189	0.623649	-37.727664	
106.095970	0.080328	0.974845	0.617871	-37.720124	
106.595952	0.085253	1.171812	0.621548	-37.743850	
107.096011	0.088535	1.007673	0.621286	-37.740387	
107.596230	0.082298	0.909189	0.615245	-37.728954	
108.096170	0.070808	1.532919	0.616033	-37.723999	
108.596012	9.348290	1309.231293	1.007078	-37.728926	
109.096200	0.012703	1309.296949	1.959611	-37.745841	
109.596182	0.010405	1308.804528	2.925011	-37.723036	
110.096339	0.009092	1.861197	3.825807	-37.753557	
110.596201	1.344857	1.106157	4.683795	-37.731447	
111.096831	1.874370	4.979843	5.489259	-37.746578	
111.601425	1.651141	369.138995	6.262683	-37.739223	
112.101563	1.576621	756.343322	7.012209	-37.720829	
112.601388	2.441635	1072.968357	7.717352	-37.739529	
113.101596	2.255501	1308.903012	8.352901	-37.734459	
113.601558	3.854873	1308.574732	8.915440	-37.734775	
114.101612	3.322733	1308.771700	9.386850	-37.761343	
114.601624	3.026627	1308.738872	9.806523	-37.762440	
115.101776	3.139882	1308.837356	10.192580	-37.747781	
115.601665	4.813445	1308.903012	10.543183	-37.755150	
116.101840	4.545242	1309.034324	10.832332	-37.763158	
116.601718	11.529044	1308.837356	10.970473	-37.727179	
117.101898	12.479414	1308.968668	11.039280	-37.745806	
117.601769	10.674533	1308.903012	11.108876	-37.749609	
118.101962	9.297073	1308.804528	11.184249	-37.757929	
118.601842	7.770577	1308.870184	11.259622	-37.750686	
119.102055	7.377956	1309.001496	11.339198	-37.752105	
119.601951	6.950537	1308.870184	11.424025	-37.760769	
120.102127	6.560542	1308.968668	11.505702	-37.754028	
120.602039	6.677738	1309.067153	11.595782	-37.735640	
121.102108	6.802155	1308.640388	11.681660	-37.746777	
121.602311	5.970298	1308.870184	11.762549	-37.756356	
122.102247	7.579191	1309.099981	11.820063	-37.769497	
122.602376	13.042086	1010.463983	11.852629	-37.759272	
123.102325	13.045697	760.972046	11.877053	-37.756666	
123.602492	13.044384	649.390181	11.891760	-37.752012	
124.106113	13.043071	552.055645	11.904103	-37.761127	
124.606142	13.045697	459.317029	11.915659	-37.756595	
125.106090	13.046682	398.158791	11.914346	-37.765499	
125.606153	13.044712	353.414467	11.927477	-37.753559	
126.106153	13.042743	316.909926	11.941659	-37.769618	
126.606233	13.042414	293.634999	11.940608	-37.773401	
127.106259	13.044384	253.453740	11.939820	-37.753749	
127.606323	13.045041	225.451604	11.953214	-37.761446	
128.106249	13.041429	206.017529	11.951376	-37.747515	
128.609882	13.045369	176.012892	11.953214	-37.751531	
129.109690	13.049308	158.482830	11.952952	-37.756508	
129.609895	13.044056	137.866950	11.954002	-37.742510	
130.109842	13.046025	125.031267	11.955578	-37.739076	
130.609974	13.043727	114.329392	11.957416	-37.753014	
131.109886	13.045697	101.296740	11.959255	-37.753911	
131.610016	13.046354	92.859985	11.966345	-37.751953	
132.111466	13.041101	86.327245	11.960305	-37.757252	
132.611540	13.044384	78.875325	11.965032	-37.748118	
133.111745	13.043727	73.852666	11.966083	-37.760738	
133.611676	13.043727	68.633039	11.960305	-37.761993	
134.111809	13.044056	64.037141	11.966345	-37.752727	
134.611791	13.046025	60.754356	11.965558	-37.748106	
135.111851	13.041758	57.307433	11.966083	-37.763288	
135.611738	13.042086	51.562560	11.964770	-37.760740	
136.111900	13.045369	49.166127	11.965032	-37.770882	
136.611807	13.044056	47.327768	11.966083	-37.753825	
137.112016	13.041758	44.767196	11.965032	-37.752575	
137.611906	13.042743	42.600558	11.966083	-37.774120	
138.112119	13.045697	40.926338	11.965558	-37.759499	
138.612005	13.043727	38.792528	11.966083	-37.768262	
139.112118	13.043071	36.921340	11.966083	-37.765189	
139.612263	13.043727	35.279948	11.966608	-37.771031	
140.112181	13.042414	33.835523	11.966871	-37.765838	
140.612345	13.044056	32.358270	11.966083	-37.740658	
141.112299	13.043071	32.029991	11.966345	-37.769462	
141.612415	13.043727	30.224460	11.965295	-37.778663	
142.112515	13.041758	29.633558	11.966345	-37.762611	
142.612511	13.046025	29.206796	11.966345	-37.761379	
143.112395	13.046682	30.421427	11.965032	-37.765215	
143.612562	13.043071	28.583067	11.965820	-37.771504	
144.112486	13.042086	27.631060	11.967396	-37.741705	
144.612598	13.040445	27.762371	11.966083	-37.762248	
145.112541	13.044384	25.694217	11.966345	-37.779612	
145.612752	13.043071	25.595733	11.966083	-37.762977	
146.112678	13.044384	24.610898	11.965820	-37.767042	
146.612759	13.042743	25.431594	11.966345	-37.783013	
147.112675	13.043727	25.661389	11.966083	-37.781685	
147.612837	13.048980	26.285118	11.966083	-37.766341	
148.112785	13.045369	27.532576	11.965558	-37.760625	
148.612666	13.045697	29.141141	11.966083	-37.769943	
149.112819	13.042743	29.666386	11.965295	-37.777990	
149.612928	13.048980	30.093148	11.965558	-37.761223	
150.112953	13.041758	30.585566	11.966083	-37.779884	
150.613072	13.043399	30.125976	11.966083	-37.790517	
151.113008	13.042743	30.191632	11.965820	-37.778353	
151.613159	13.045041	29.929009	11.965820	-37.766163	
152.113082	13.044712	30.027493	11.965295	-37.774050	
152.613137	13.046025	29.272452	11.967396	-37.764100	
153.113333	13.043071	28.714379	11.966345	-37.770489	
153.613220	13.041101	28.123477	11.965558	-37.768816	
154.113425	13.050293	27.663887	11.966345	-37.774424	
154.613316	13.043727	27.696715	11.966345	-37.789332	
155.113472	13.044384	27.072986	11.967133	-37.786887	
155.613404	13.040773	26.908847	11.966345	-37.767640	
156.113525	13.043399	26.679052	11.966083	-37.789906	
156.613450	13.046354	27.237125	11.966608	-37.797229	
157.113677	13.044056	28.123477	11.966083	-37.801097	
157.613781	13.040116	28.123477	11.966345	-37.782480	
158.113736	13.044056	28.812862	11.965820	-37.786416	
158.613760	13.044384	28.681551	11.966608	-37.790620	
159.113731	13.044056	28.977001	11.966871	-37.797621	
159.613839	13.043399	28.812862	11.967921	-37.789969	
160.113763	13.043727	29.141141	11.966345	-37.785496	
160.613954	13.042414	28.780034	11.966345	-37.782686	
161.113838	13.040773	28.386100	11.966345	-37.791353	
161.614052	13.044712	28.484584	11.966608	-37.779945	
162.113981	13.046354	28.090649	11.966083	-37.787604	
162.614071	13.043071	27.926510	11.965558	-37.803711	
163.114249	13.044384	27.893682	11.966345	-37.778546	
163.616035	13.044712	27.762371	11.967396	-37.794663	
164.116030	13.041101	27.762371	11.966345	-37.798146	
164.615862	13.042086	27.860855	11.966083	-37.785822	
165.116022	13.046682	27.762371	11.966345	-37.800363	
165.615938	13.042743	28.024994	11.966608	-37.792290	
166.116120	13.042414	28.189133	11.966083	-37.784484	
166.616025	13.044712	28.024994	11.966608	-37.803223	
167.117420	13.042743	28.057822	11.966345	-37.800463	
167.617438	13.044712	27.959338	11.967133	-37.800062	
168.117589	13.043071	28.090649	11.966083	-37.780496	
168.617533	13.043071	27.729543	11.965820	-37.806644	
169.117597	13.045041	27.171470	11.966871	-37.791295	
169.617715	13.043071	27.138642	11.965820	-37.787805	
170.117620	13.046025	27.237125	11.966345	-37.820551	
170.617831	13.044384	27.466920	11.960305	-37.795819	
171.117684	13.044056	27.171470	11.966608	-37.811671	
171.620005	13.044384	27.696715	11.965820	-37.805987	
172.120136	13.044056	27.434093	11.966345	-37.813086	
172.620099	13.040773	27.204298	11.966608	-37.804725	
173.120257	13.042086	27.007330	11.959517	-37.810613	
173.620257	13.043071	27.663887	11.959780	-37.814118	
174.120283	13.044056	27.434093	11.966083	-37.808269	
174.620209	13.043399	27.762371	11.965820	-37.810888	
175.120155	13.043071	28.189133	11.956891	-37.787266	
175.620278	13.043399	28.353272	11.966083	-37.803457	
176.120501	13.044384	28.484584	11.960042	-37.807679	
176.620650	13.043071	28.648723	11.963719	-37.810775	
177.120804	13.041758	28.977001	11.966608	-37.814424	
177.620793	13.046682	29.075485	11.963194	-37.817749	
178.120699	13.042414	28.944174	11.965820	-37.804101	
178.620886	13.047667	28.780034	11.960568	-37.810635	
179.120699	13.043399	29.535075	11.953477	-37.828363	
179.620785	13.043399	29.436591	11.966608	-37.819306	
180.120662	13.042086	29.338108	11.960042	-37.813760	
180.620838	13.042086	29.042657	11.966871	-37.812205	
181.120803	13.046025	29.338108	11.966345	-37.798834	
181.623919	13.044056	28.812862	11.966083	-37.833527	
182.124118	13.040773	28.878518	11.966871	-37.807028	
182.623918	13.046025	29.206796	11.966083	-37.806638	
183.124161	13.046025	28.944174	11.960042	-37.810992	
183.624116	13.045369	28.878518	11.958992	-37.829882	
184.128663	13.043727	28.648723	11.966083	-37.829378	
184.628590	13.042743	29.535075	11.965558	-37.835511	
185.128690	13.044056	29.206796	11.964507	-37.807688	
185.628642	13.044384	29.403763	11.959255	-37.813498	
186.128809	13.042086	29.173968	11.966083	-37.823094	
186.628790	13.042743	29.600730	11.961881	-37.827688	
187.128887	13.041429	29.567903	11.959780	-37.839122	
187.630054	13.045041	29.732042	11.960830	-37.820329	
188.130041	13.044056	29.863353	11.962143	-37.821153	
188.630094	13.045041	29.535075	11.965820	-37.830974	
189.130317	13.047010	29.469419	11.966345	-37.837809	
189.630188	13.046354	29.502247	11.966345	-37.839379	
190.130112	13.041101	29.896181	11.966871	-37.818772	
190.630310	13.050621	28.977001	11.966345	-37.831922	
191.130164	13.043071	28.911346	11.966608	-37.845291	
191.630420	13.043071	28.780034	11.959780	-37.842108	
192.130243	13.043399	29.370936	11.966345	-37.840950	
192.630428	13.043727	29.305280	11.966345	-37.845737	
193.130318	13.041758	29.600730	11.965820	-37.838984	
193.630459	13.044384	29.961837	11.965820	-37.837122	
194.130650	13.043727	29.732042	11.965820	-37.831343	
194.630552	13.046025	29.206796	11.964770	-37.839396	
195.132606	13.045041	29.830525	11.965295	-37.831950	
195.630699	13.043071	30.158804	11.966608	-37.861345	
196.130791	13.043071	30.158804	11.966345	-37.829074	
196.630707	13.044384	30.027493	11.966083	-37.853545	
197.130599	13.043071	30.027493	11.966083	-37.847117	
197.630791	13.044056	29.994665	11.966083	-37.837383	
198.130673	13.042743	29.929009	11.966345	-37.838220	
198.630812	13.045697	30.749705	11.959517	-37.848108	
199.130699	13.044056	31.012328	11.966608	-37.838281	
199.630975	13.044384	30.913844	11.959780	-37.852584	
200.131452	13.042743	30.815361	11.960305	-37.853155	
200.631406	13.045369	30.881017	11.965032	-37.836588	
201.131559	13.044712	30.848189	11.966083	-37.842236	
201.631658	13.043071	30.651222	11.961881	-37.840539	
202.131651	13.043727	31.242123	11.960305	-37.842952	
202.631506	13.043727	31.045156	11.965295	-37.847580	
203.131640	13.043071	30.651222	11.960305	-37.843126	
203.631569	13.044056	30.585566	11.965820	-37.857064	
204.132178	13.041101	29.633558	11.952426	-37.849611	
204.636146	13.044384	29.173968	11.965032	-37.845562	
205.136469	13.045041	29.009829	11.966345	-37.855192	
205.636301	13.043399	28.714379	11.957416	-37.852470	
206.136448	13.046354	28.780034	11.960042	-37.849241	
206.636367	13.047339	29.108313	11.966345	-37.848122	
207.136359	13.043071	29.764870	11.965295	-37.852523	
207.636451	13.042414	29.403763	11.966083	-37.855374	
208.136258	13.043071	29.699214	11.954002	-37.849756	
208.636476	13.040445	28.944174	11.960042	-37.837416	
209.136539	13.044384	28.550239	11.954790	-37.853208	
209.636525	13.044056	28.747206	11.966083	-37.862999	
210.136602	13.042086	28.583067	11.960830	-37.858571	
210.636548	13.044712	28.944174	11.965820	-37.853782	
211.136533	13.045041	28.911346	11.960305	-37.856223	
211.636549	13.043399	28.977001	11.961618	-37.840830	
212.136542	13.042743	28.780034	11.965295	-37.872700	
212.636751	13.043071	29.075485	11.966345	-37.850570	
213.136607	13.043727	28.780034	11.959255	-37.852712	
213.636737	13.042086	29.009829	11.965295	-37.853674	
214.136658	13.046354	29.009829	11.961881	-37.852222	
214.636919	13.044712	28.681551	11.960830	-37.888060	
215.136798	13.045369	28.812862	11.962669	-37.865714	
215.636659	13.042086	29.141141	11.960305	-37.870099	
216.138276	13.043399	29.502247	11.962406	-37.855797	
216.638193	13.044056	29.633558	11.966083	-37.868708	
217.138324	13.042743	29.699214	11.959780	-37.868609	
217.638294	13.042743	29.436591	11.960568	-37.872694	
218.138404	13.043071	29.764870	11.966608	-37.877625	
218.638441	13.045369	30.158804	11.966345	-37.856959	
219.141382	13.051278	30.454255	11.966345	-37.865735	
219.638440	13.041758	31.373434	11.959780	-37.863311	
220.138694	13.046682	31.274951	11.966083	-37.863873	
220.638743	13.046025	31.373434	11.966083	-37.875910	
221.138654	13.043727	31.274951	11.965558	-37.896790	
221.638588	13.043071	31.143639	11.965558	-37.869953	
222.138710	13.044384	31.307779	11.966083	-37.884262	
222.638907	13.044056	31.012328	11.966083	-37.870279	
223.138865	13.042743	30.815361	11.965032	-37.847791	
223.638882	13.042414	30.060320	11.964244	-37.878831	
224.138826	13.042743	29.535075	11.966871	-37.880466	
224.639009	13.045697	29.567903	11.965558	-37.845634	
225.139003	13.043727	29.305280	11.966608	-37.881013	
225.638896	13.043071	29.075485	11.967133	-37.886912	
226.138974	13.043399	29.108313	11.960830	-37.862864	
226.638965	13.048652	29.305280	11.966345	-37.868891	
227.139121	13.044056	29.206796	11.966345	-37.888066	
227.639069	13.043399	29.338108	11.965820	-37.883366	
228.139207	13.043071	29.239624	11.965558	-37.884083	
228.639048	13.042414	29.567903	11.965820	-37.850613	
229.139244	13.043399	29.567903	11.965820	-37.874334	
229.639175	13.043727	30.322943	11.964507	-37.881533	
230.139287	13.045041	30.454255	11.965558	-37.880041	
230.639252	13.047339	31.012328	11.966608	-37.887107	
231.139307	13.042086	31.143639	11.966345	-37.877582	
231.639292	13.044712	31.603229	11.966608	-37.880010	
232.139379	13.046682	31.833024	11.963457	-37.887739	
232.639342	13.045041	31.997163	11.964244	-37.884741	
233.139322	13.043071	31.012328	11.966083	-37.883007	
233.639426	13.047339	30.552738	11.966608	-37.877862	
234.139567	13.043071	30.060320	11.966345	-37.889031	
234.643732	13.040445	30.257287	11.964507	-37.892724	
235.143657	13.043399	30.487082	11.966608	-37.888924	
235.643632	13.048323	30.454255	11.966083	-37.881800	
236.143806	13.041429	30.257287	11.965295	-37.889886	
236.643728	13.046354	30.815361	11.960042	-37.886215	
237.143799	13.042086	30.881017	11.966608	-37.892252	
237.643734	13.039460	31.340606	11.960042	-37.884398	
238.143966	13.044712	31.012328	11.966083	-37.892087	
238.643845	13.045041	30.881017	11.966083	-37.888866	
239.143757	13.044056	31.110811	11.966608	-37.893704	
239.643859	13.041101	31.471918	11.964507	-37.903965	
240.144014	13.043399	30.881017	11.966871	-37.891976	
240.644126	13.046354	30.782533	11.966083	-37.902681	
241.144105	13.042743	30.881017	11.960305	-37.885613	
241.644249	13.043071	31.012328	11.966608	-37.902196	
242.144393	13.040773	30.684049	11.965820	-37.900480	
242.644344	13.043727	30.257287	11.966871	-37.905167	
243.144520	13.043727	30.421427	11.966608	-37.905863	
243.644324	13.046025	30.487082	11.966608	-37.900293	
244.144476	13.045369	30.093148	11.967133	-37.895878	
244.644427	13.043399	29.896181	11.959517	-37.898266	
245.147572	13.043071	29.042657	11.965558	-37.902454	
245.647665	13.042414	28.977001	11.966871	-37.891962	
246.147656	13.044384	28.845690	11.965820	-37.899068	
246.647719	13.040445	28.648723	11.965558	-37.911694	
247.147676	13.042086	28.254789	11.965558	-37.912902	
247.647905	13.043399	28.156305	11.966083	-37.895857	
248.150300	13.042743	28.057822	11.966871	-37.889444	
248.647891	13.041101	28.090649	11.966345	-37.901772	
249.147851	13.042414	28.156305	11.966083	-37.917397	
249.647996	13.041429	28.287617	11.960042	-37.919211	
250.147887	13.048980	28.057822	11.966345	-37.899327	
250.648123	13.043727	28.057822	11.965820	-37.899763	
251.147991	13.045041	28.320444	11.966083	-37.914836	
251.648136	13.043071	28.418928	11.966871	-37.920325	
252.148269	13.045697	28.714379	11.966608	-37.888924	
252.648240	13.043727	28.780034	11.966083	-37.908073	
253.152024	13.046354	28.944174	11.965295	-37.920325	
253.652091	13.044384	28.977001	11.966871	-37.902678	
254.151988	13.044056	29.469419	11.963457	-37.913642	
254.652168	13.043727	29.338108	11.965820	-37.906251	
255.152050	13.044384	29.666386	11.965820	-37.909877	
255.652264	13.042414	29.699214	11.965558	-37.920138	
256.152111	13.043399	29.042657	11.960305	-37.919911	
256.652518	13.043399	29.108313	11.966608	-37.915518	
257.152461	13.044056	29.042657	11.966608	-37.909085	
257.652349	13.042086	28.812862	11.965820	-37.897015	
258.152487	13.042086	28.812862	11.966083	-37.902406	
258.652460	13.044384	29.075485	11.965820	-37.920076	
259.152597	13.044712	28.615895	11.965820	-37.912346	
259.652483	13.045697	28.911346	11.967659	-37.908302	
260.152657	13.040116	28.977001	11.966871	-37.911344	
260.652720	13.042414	29.502247	11.966345	-37.912008	
261.152695	13.042743	29.666386	11.966345	-37.910921	
261.652813	13.043399	29.896181	11.966083	-37.920287	
262.153013	13.042086	30.191632	11.966345	-37.919364	
262.652959	13.045369	30.454255	11.964507	-37.920126	
263.153013	13.041429	30.913844	11.966083	-37.923459	
263.653031	13.044384	30.651222	11.966608	-37.919124	
264.153052	13.046354	30.257287	11.966608	-37.919463	
264.653015	13.043071	30.355771	11.965820	-37.921980	
265.153227	13.042086	29.600730	11.965558	-37.936545	
265.653124	13.047667	30.027493	11.966608	-37.929524	
266.153300	13.043727	29.469419	11.965820	-37.911916	
266.653401	13.045041	29.567903	11.967133	-37.924280	
267.153364	13.044712	29.108313	11.966083	-37.927738	
267.653464	13.045697	29.305280	11.965820	-37.927216	
268.153362	13.041429	28.878518	11.966345	-37.932412	
268.653579	13.047995	29.535075	11.965820	-37.922832	
269.153436	13.044056	29.272452	11.966083	-37.931410	
269.653649	13.044056	29.173968	11.965820	-37.937389	
270.153511	13.040773	28.977001	11.966871	-37.944986	
270.653702	13.042414	29.206796	11.966345	-37.936254	
271.153672	13.041758	29.075485	11.966083	-37.930029	
271.653799	13.042414	29.535075	11.966345	-37.939298	
272.153696	13.042086	30.322943	11.966871	-37.921118	
272.653767	13.041758	29.961837	11.966608	-37.942425	
273.153722	13.044056	29.994665	11.966345	-37.926568	
273.653845	13.041101	30.552738	11.966083	-37.940474	
274.154006	13.043727	31.077984	11.966608	-37.933354	
274.653978	13.043727	31.537574	11.966608	-37.934766	
275.154470	13.047667	31.471918	11.967133	-37.945750	
275.654262	13.044384	30.913844	11.966608	-37.948201	
276.154184	13.043727	31.176467	11.967133	-37.954003	
276.654301	13.043399	30.716877	11.965295	-37.947212	
277.154254	13.044056	30.684049	11.965820	-37.930984	
277.654341	13.044712	30.684049	11.966608	-37.943274	
278.154322	13.045041	31.274951	11.966083	-37.922626	
278.654426	13.042743	30.749705	11.966083	-37.954668	
279.154532	13.042743	30.322943	11.965820	-37.954668	
279.654674	13.043399	30.290115	11.966083	-37.942236	
280.154685	13.042743	29.666386	11.966345	-37.947976	
280.654818	13.043071	30.027493	11.965558	-37.934903	
281.154646	13.042414	30.421427	11.966608	-37.942170	
281.654812	13.046025	30.684049	11.966871	-37.961286	
282.154789	13.044056	31.012328	11.967659	-37.949077	
282.654671	13.044384	31.045156	11.967133	-37.945036	
283.154892	13.046354	30.782533	11.967659	-37.943445	
283.654783	13.045369	30.979500	11.966608	-37.952215	
284.154914	13.043727	30.848189	11.966871	-37.956399	
284.656821	13.043071	30.782533	11.968184	-37.966858	
285.156673	13.045041	31.176467	11.966083	-37.957603	
285.656855	13.043399	31.143639	11.966345	-37.947804	
286.156695	13.041101	31.143639	11.965820	-37.935925	
286.656653	13.046025	31.143639	11.966608	-37.957189	
287.156805	13.043399	30.782533	11.966345	-37.944811	
287.656705	13.042086	30.191632	11.966608	-37.940734	
288.156877	13.045369	30.093148	11.966083	-37.954953	
288.656763	13.046354	29.567903	11.966345	-37.955987	
289.156955	13.043399	29.338108	11.967396	-37.962742	
289.656909	13.046682	28.911346	11.966608	-37.955947	
290.157094	13.043727	29.009829	11.967396	-37.954664	
290.656991	13.042414	28.911346	11.966608	-37.957012	
291.157677	13.042743	28.911346	11.966345	-37.964905	
291.658320	13.043399	29.042657	11.966871	-37.963572	
292.158499	13.044384	29.108313	11.966608	-37.959959	
292.658415	13.042743	29.075485	11.960042	-37.958573	
293.158461	13.041758	28.911346	11.966608	-37.955089	
293.658421	13.043399	29.141141	11.966871	-37.964616	
294.158577	13.039460	29.797698	11.965295	-37.961239	
294.658481	13.042086	30.093148	11.966871	-37.949418	
295.158378	13.041101	30.125976	11.966345	-37.948829	
295.658595	13.045041	30.224460	11.967133	-37.989741	
296.158697	13.044712	30.355771	11.966345	-37.959778	
296.658677	13.048652	30.388599	11.966083	-37.973276	
297.158754	13.044384	30.585566	11.966345	-37.956423	
297.658714	13.043399	30.782533	11.966345	-37.974203	
298.158671	13.043399	30.684049	11.965295	-37.967724	
298.658727	13.043727	30.749705	11.967396	-37.981120	
299.159833	13.042743	30.585566	11.966345	-37.969467	
299.659663	13.044056	30.355771	11.966345	-37.961205	
300.159848	13.046025	30.290115	11.966345	-37.965698	
300.659777	13.044712	29.469419	11.966083	-37.967752	
301.159876	13.046025	29.272452	11.967133	-37.969648	
301.659842	13.044712	29.239624	11.965820	-37.989058	
302.159965	0.011718	1.138984	11.518833	-37.961172	
302.659954	13.043727	1.073329	10.738838	-37.962874	
303.160028	11.900329	1.106157	9.978016	-37.978368	
303.660225	1.898006	1.073329	9.280487	-37.959791	
304.160112	0.012375	1.171812	8.650191	-37.965888	
304.660034	0.010405	1.138984	8.078985	-37.967367	
305.160159	0.009092	1.138984	7.548223	-37.972358	
305.660093	0.010405	1.861197	7.058168	-37.984529	
306.163205	0.010733	1.434435	6.595164	-37.970817	
306.663505	0.009748	1.138984	6.175230	-37.982471	
307.163230	0.011718	1.204640	5.775780	-37.986517	
307.663500	0.009092	1.204640	5.407583	-37.990586	
308.163352	0.010405	1.040501	5.066962	-37.981758	
308.663502	0.010405	1.434435	4.743148	-37.984450	
309.163460	0.012046	1.138984	4.437455	-37.996224	
309.663586	0.008107	1.040501	4.149621	-37.979098	
310.163547	0.009748	1.106157	3.886998	-37.972766	
310.663690	0.010733	1.303124	3.635931	-37.988079	
311.163711	0.012375	1.204640	3.405611	-37.969394	
311.663703	0.010077	1.138984	3.186058	-37.984511	
312.163614	0.010733	1.270296	2.983314	-37.987950	
312.663813	0.009420	1.171812	2.802892	-37.977407	
313.163685	0.013031	1.303124	2.616167	-37.997350	
313.665257	0.010733	1.500091	2.451503	-37.998865	
314.163781	0.010733	1.270296	2.294980	-37.973406	
314.663893	0.009748	1.171812	2.144760	-37.992578	
315.163916	0.009420	1.171812	2.013186	-37.983514	
315.664025	0.009748	1.106157	1.887652	-37.984401	
316.163933	0.012375	1.106157	1.770522	-37.975258	
316.664027	0.011718	1.073329	1.656807	-37.989054	
317.163971	0.008764	1.138984	1.556748	-37.988417	
317.663902	0.010077	1.335951	1.462729	-38.011623	
318.164582	0.013360	1.204640	1.371336	-38.010054	
318.664025	0.009748	1.204640	1.288347	-38.004047	
319.164093	0.011062	1.467263	1.207985	-38.008771	
319.664085	0.012046	1.138984	1.138915	-37.995976	
320.164232	0.014673	1.270296	1.068532	-38.001802	
320.664116	0.011390	1.237468	1.007866	-37.994845	
321.164262	0.009092	1.237468	0.945099	-38.011273	
321.664227	0.011718	1.237468	0.883120	-37.986245	
322.164306	0.009092	1.171812	0.834010	-37.991812	
322.664335	0.008435	1.007673	0.785425	-38.002552	
323.166932	0.013360	1.303124	0.735001	-38.004108	
323.667064	0.010733	1.138984	0.697184	-38.005552	
324.167015	0.014016	1.204640	0.652012	-38.003284	
324.667006	0.009092	1.138984	0.615245	-38.006988	
325.167075	0.011718	1.237468	0.578741	-38.023585	
325.667202	0.011062	0.974845	0.547226	-38.010175	
326.167158	0.009420	1.270296	0.509671	-38.023893	
326.671360	0.011062	1.106157	0.484459	-38.010902	
327.171514	0.011718	1.335951	0.453470	-38.014303	
327.671415	0.010405	1.237468	0.428520	-38.016331	
328.171582	0.009748	1.073329	0.397794	-38.006192	
328.671547	0.010077	1.106157	0.376521	-38.015181	
329.171644	0.011718	1.270296	0.352885	-38.009219	
329.671614	0.011390	1.106157	0.328461	-38.008979	
330.171757	0.013688	1.434435	0.314542	-38.006630	
330.671631	0.010405	1.171812	0.290906	-38.005022	
331.171817	0.010077	1.106157	0.276987	-38.012237	
331.671735	0.009748	1.237468	0.264906	-38.012924	
332.171679	0.012046	1.335951	0.244947	-38.012916	
